time(sec.) 	 T(degreeC.) 	 Q(W.) 
0 	 29.492000 	 100.000000 
1 	 29.483000 	 100.000000 
2 	 29.394000 	 100.000000 
3 	 29.355000 	 100.000000 
4 	 29.356000 	 100.000000 
5 	 29.346000 	 100.000000 
6 	 29.371000 	 100.000000 
7 	 29.331000 	 100.000000 
8 	 29.308000 	 100.000000 
9 	 29.270000 	 100.000000 
10 	 29.281000 	 100.000000 
11 	 29.303000 	 100.000000 
12 	 29.322000 	 100.000000 
13 	 29.307000 	 100.000000 
14 	 29.308000 	 100.000000 
15 	 29.322000 	 100.000000 
16 	 29.312000 	 100.000000 
17 	 29.266000 	 100.000000 
18 	 29.244000 	 100.000000 
19 	 29.196000 	 100.000000 
20 	 29.250000 	 100.000000 
21 	 29.231000 	 100.000000 
22 	 29.193000 	 100.000000 
23 	 29.144000 	 100.000000 
24 	 29.214000 	 100.000000 
25 	 29.248000 	 100.000000 
26 	 29.275000 	 100.000000 
27 	 29.259000 	 100.000000 
28 	 29.293000 	 100.000000 
29 	 29.252000 	 100.000000 
30 	 29.284000 	 100.000000 
31 	 29.304000 	 100.000000 
32 	 29.291000 	 100.000000 
33 	 29.271000 	 100.000000 
34 	 29.278000 	 100.000000 
35 	 29.284000 	 100.000000 
36 	 29.333000 	 100.000000 
37 	 29.369000 	 100.000000 
38 	 29.389000 	 100.000000 
39 	 29.412000 	 100.000000 
40 	 29.481000 	 100.000000 
41 	 29.522000 	 100.000000 
42 	 29.534000 	 100.000000 
43 	 29.533000 	 100.000000 
44 	 29.548000 	 100.000000 
45 	 29.575000 	 100.000000 
46 	 29.606000 	 100.000000 
47 	 29.605000 	 100.000000 
48 	 29.629000 	 100.000000 
49 	 29.676000 	 100.000000 
50 	 29.651000 	 100.000000 
51 	 29.691000 	 100.000000 
52 	 29.775000 	 100.000000 
53 	 29.860000 	 100.000000 
54 	 29.908000 	 100.000000 
55 	 29.928000 	 100.000000 
56 	 29.984000 	 100.000000 
57 	 30.002000 	 100.000000 
58 	 29.952000 	 100.000000 
59 	 29.959000 	 100.000000 
60 	 30.003000 	 100.000000 
61 	 30.080000 	 100.000000 
62 	 30.128000 	 100.000000 
63 	 30.209000 	 100.000000 
64 	 30.176000 	 100.000000 
65 	 30.211000 	 100.000000 
66 	 30.226000 	 100.000000 
67 	 30.233000 	 100.000000 
68 	 30.222000 	 100.000000 
69 	 30.208000 	 100.000000 
70 	 30.366000 	 100.000000 
71 	 30.393000 	 100.000000 
72 	 30.503000 	 100.000000 
73 	 30.549000 	 100.000000 
74 	 30.602000 	 100.000000 
75 	 30.634000 	 100.000000 
76 	 30.672000 	 100.000000 
77 	 30.723000 	 100.000000 
78 	 30.778000 	 100.000000 
79 	 30.814000 	 100.000000 
80 	 30.887000 	 100.000000 
81 	 30.997000 	 100.000000 
82 	 31.092000 	 100.000000 
83 	 31.158000 	 100.000000 
84 	 31.112000 	 100.000000 
85 	 31.086000 	 100.000000 
86 	 31.233000 	 100.000000 
87 	 31.316000 	 100.000000 
88 	 31.319000 	 100.000000 
89 	 31.351000 	 100.000000 
90 	 31.416000 	 100.000000 
91 	 31.489000 	 100.000000 
92 	 31.589000 	 100.000000 
93 	 31.605000 	 100.000000 
94 	 31.593000 	 100.000000 
95 	 31.576000 	 100.000000 
96 	 31.536000 	 100.000000 
97 	 31.593000 	 100.000000 
98 	 31.615000 	 100.000000 
99 	 31.605000 	 100.000000 
100 	 31.679000 	 100.000000 
101 	 31.649000 	 100.000000 
102 	 31.656000 	 100.000000 
103 	 31.743000 	 100.000000 
104 	 31.777000 	 100.000000 
105 	 31.886000 	 100.000000 
106 	 32.074000 	 100.000000 
107 	 32.210000 	 100.000000 
108 	 32.307000 	 100.000000 
109 	 32.400000 	 100.000000 
110 	 32.382000 	 100.000000 
111 	 32.399000 	 100.000000 
112 	 32.381000 	 100.000000 
113 	 32.368000 	 100.000000 
114 	 32.276000 	 100.000000 
115 	 32.410000 	 100.000000 
116 	 32.490000 	 100.000000 
117 	 32.519000 	 100.000000 
118 	 32.520000 	 100.000000 
119 	 32.723000 	 100.000000 
120 	 32.886000 	 100.000000 
121 	 32.953000 	 100.000000 
122 	 32.940000 	 100.000000 
123 	 32.978000 	 100.000000 
124 	 33.064000 	 100.000000 
125 	 33.092000 	 100.000000 
126 	 33.141000 	 100.000000 
127 	 33.144000 	 100.000000 
128 	 33.084000 	 100.000000 
129 	 33.047000 	 100.000000 
130 	 33.120000 	 100.000000 
131 	 33.293000 	 100.000000 
132 	 33.269000 	 100.000000 
133 	 33.291000 	 100.000000 
134 	 33.291000 	 100.000000 
135 	 33.246000 	 100.000000 
136 	 33.217000 	 100.000000 
137 	 33.251000 	 100.000000 
138 	 33.328000 	 100.000000 
139 	 33.429000 	 100.000000 
140 	 33.415000 	 100.000000 
141 	 33.449000 	 100.000000 
142 	 33.546000 	 100.000000 
143 	 33.611000 	 100.000000 
144 	 33.615000 	 100.000000 
145 	 33.626000 	 100.000000 
146 	 33.621000 	 100.000000 
147 	 33.585000 	 100.000000 
148 	 33.561000 	 100.000000 
149 	 33.569000 	 100.000000 
150 	 33.627000 	 100.000000 
151 	 33.621000 	 100.000000 
152 	 33.642000 	 100.000000 
153 	 33.701000 	 100.000000 
154 	 33.765000 	 100.000000 
155 	 33.768000 	 100.000000 
156 	 33.780000 	 100.000000 
157 	 33.885000 	 100.000000 
158 	 33.938000 	 100.000000 
159 	 34.042000 	 100.000000 
160 	 34.130000 	 100.000000 
161 	 34.157000 	 100.000000 
162 	 34.134000 	 100.000000 
163 	 34.108000 	 100.000000 
164 	 34.126000 	 100.000000 
165 	 34.145000 	 100.000000 
166 	 34.242000 	 100.000000 
167 	 34.273000 	 100.000000 
168 	 34.292000 	 100.000000 
169 	 34.258000 	 100.000000 
170 	 34.281000 	 100.000000 
171 	 34.357000 	 100.000000 
172 	 34.444000 	 100.000000 
173 	 34.477000 	 100.000000 
174 	 34.544000 	 100.000000 
175 	 34.574000 	 100.000000 
176 	 34.559000 	 100.000000 
177 	 34.702000 	 100.000000 
178 	 34.789000 	 100.000000 
179 	 34.875000 	 100.000000 
180 	 34.878000 	 100.000000 
181 	 34.841000 	 100.000000 
182 	 34.922000 	 100.000000 
183 	 35.034000 	 100.000000 
184 	 35.069000 	 100.000000 
185 	 34.993000 	 100.000000 
186 	 34.955000 	 100.000000 
187 	 35.119000 	 100.000000 
188 	 35.134000 	 100.000000 
189 	 35.125000 	 100.000000 
190 	 35.134000 	 100.000000 
191 	 35.093000 	 100.000000 
192 	 35.056000 	 100.000000 
193 	 35.146000 	 100.000000 
194 	 35.202000 	 100.000000 
195 	 35.242000 	 100.000000 
196 	 35.185000 	 100.000000 
197 	 35.276000 	 100.000000 
198 	 35.214000 	 100.000000 
199 	 35.137000 	 100.000000 
200 	 35.098000 	 100.000000 
201 	 35.202000 	 100.000000 
202 	 35.312000 	 100.000000 
203 	 35.385000 	 100.000000 
204 	 35.392000 	 100.000000 
205 	 35.390000 	 100.000000 
206 	 35.432000 	 100.000000 
207 	 35.460000 	 100.000000 
208 	 35.429000 	 100.000000 
209 	 35.474000 	 100.000000 
210 	 35.618000 	 100.000000 
211 	 35.746000 	 100.000000 
212 	 35.922000 	 100.000000 
213 	 35.999000 	 100.000000 
214 	 36.038000 	 100.000000 
215 	 35.990000 	 100.000000 
216 	 36.038000 	 100.000000 
217 	 36.079000 	 100.000000 
218 	 36.084000 	 100.000000 
219 	 36.084000 	 100.000000 
220 	 36.055000 	 100.000000 
221 	 36.048000 	 100.000000 
222 	 36.041000 	 100.000000 
223 	 36.080000 	 100.000000 
224 	 36.104000 	 100.000000 
225 	 36.177000 	 100.000000 
226 	 36.198000 	 100.000000 
227 	 36.208000 	 100.000000 
228 	 36.252000 	 100.000000 
229 	 36.292000 	 100.000000 
230 	 36.299000 	 100.000000 
231 	 36.311000 	 100.000000 
232 	 36.365000 	 100.000000 
233 	 36.462000 	 100.000000 
234 	 36.559000 	 100.000000 
235 	 36.663000 	 100.000000 
236 	 36.721000 	 100.000000 
237 	 36.616000 	 100.000000 
238 	 36.683000 	 100.000000 
239 	 36.848000 	 100.000000 
240 	 36.907000 	 100.000000 
241 	 36.890000 	 100.000000 
242 	 36.934000 	 100.000000 
243 	 37.006000 	 100.000000 
244 	 37.054000 	 100.000000 
245 	 37.011000 	 100.000000 
246 	 37.015000 	 100.000000 
247 	 37.136000 	 100.000000 
248 	 37.231000 	 100.000000 
249 	 37.263000 	 100.000000 
250 	 37.210000 	 100.000000 
251 	 37.117000 	 100.000000 
252 	 37.117000 	 100.000000 
253 	 37.206000 	 100.000000 
254 	 37.281000 	 100.000000 
255 	 37.281000 	 100.000000 
256 	 37.296000 	 100.000000 
257 	 37.350000 	 100.000000 
258 	 37.430000 	 100.000000 
259 	 37.423000 	 100.000000 
260 	 37.430000 	 100.000000 
261 	 37.466000 	 100.000000 
262 	 37.490000 	 100.000000 
263 	 37.512000 	 100.000000 
264 	 37.512000 	 100.000000 
265 	 37.470000 	 100.000000 
266 	 37.395000 	 100.000000 
267 	 37.367000 	 100.000000 
268 	 37.346000 	 100.000000 
269 	 37.493000 	 100.000000 
270 	 37.537000 	 100.000000 
271 	 37.459000 	 100.000000 
272 	 37.618000 	 100.000000 
273 	 37.684000 	 100.000000 
274 	 37.727000 	 100.000000 
275 	 37.725000 	 100.000000 
276 	 37.692000 	 100.000000 
277 	 37.608000 	 100.000000 
278 	 37.659000 	 100.000000 
279 	 37.757000 	 100.000000 
280 	 37.879000 	 100.000000 
281 	 37.956000 	 100.000000 
282 	 38.088000 	 100.000000 
283 	 38.234000 	 100.000000 
284 	 38.192000 	 100.000000 
285 	 38.085000 	 100.000000 
286 	 37.999000 	 100.000000 
287 	 38.039000 	 100.000000 
288 	 38.020000 	 100.000000 
289 	 38.025000 	 100.000000 
290 	 38.076000 	 100.000000 
291 	 38.126000 	 100.000000 
292 	 38.110000 	 100.000000 
293 	 38.110000 	 100.000000 
294 	 38.192000 	 100.000000 
295 	 38.342000 	 100.000000 
296 	 38.380000 	 100.000000 
297 	 38.373000 	 100.000000 
298 	 38.344000 	 100.000000 
299 	 38.358000 	 100.000000 
300 	 38.321000 	 100.000000 
301 	 38.427000 	 100.000000 
302 	 38.443000 	 100.000000 
303 	 38.463000 	 100.000000 
304 	 38.477000 	 100.000000 
305 	 38.481000 	 100.000000 
306 	 38.443000 	 100.000000 
307 	 38.404000 	 100.000000 
308 	 38.398000 	 100.000000 
309 	 38.391000 	 100.000000 
310 	 38.394000 	 100.000000 
311 	 38.385000 	 100.000000 
312 	 38.399000 	 100.000000 
313 	 38.385000 	 100.000000 
314 	 38.458000 	 100.000000 
315 	 38.467000 	 100.000000 
316 	 38.495000 	 100.000000 
317 	 38.554000 	 100.000000 
318 	 38.662000 	 100.000000 
319 	 38.646000 	 100.000000 
320 	 38.833000 	 100.000000 
321 	 38.922000 	 100.000000 
322 	 39.045000 	 100.000000 
323 	 39.130000 	 100.000000 
324 	 39.118000 	 100.000000 
325 	 39.140000 	 100.000000 
326 	 39.148000 	 100.000000 
327 	 39.108000 	 100.000000 
328 	 39.090000 	 100.000000 
329 	 39.180000 	 100.000000 
330 	 39.285000 	 100.000000 
331 	 39.305000 	 100.000000 
332 	 39.266000 	 100.000000 
333 	 39.337000 	 100.000000 
334 	 39.376000 	 100.000000 
335 	 39.377000 	 100.000000 
336 	 39.325000 	 100.000000 
337 	 39.276000 	 100.000000 
338 	 39.230000 	 100.000000 
339 	 39.160000 	 100.000000 
340 	 39.169000 	 100.000000 
341 	 39.200000 	 100.000000 
342 	 39.383000 	 100.000000 
343 	 39.482000 	 100.000000 
344 	 39.565000 	 100.000000 
345 	 39.565000 	 100.000000 
346 	 39.558000 	 100.000000 
347 	 39.487000 	 100.000000 
348 	 39.494000 	 100.000000 
349 	 39.441000 	 100.000000 
350 	 39.456000 	 100.000000 
351 	 39.394000 	 100.000000 
352 	 39.409000 	 100.000000 
353 	 39.519000 	 100.000000 
354 	 39.533000 	 100.000000 
355 	 39.589000 	 100.000000 
356 	 39.511000 	 100.000000 
357 	 39.440000 	 100.000000 
358 	 39.503000 	 100.000000 
359 	 39.512000 	 100.000000 
360 	 39.349000 	 100.000000 
361 	 39.353000 	 100.000000 
362 	 39.395000 	 100.000000 
363 	 39.484000 	 100.000000 
364 	 39.599000 	 100.000000 
365 	 39.754000 	 22.968000 
366 	 39.892000 	 0.000000 
367 	 39.944000 	 0.000000 
368 	 39.894000 	 51.575000 
369 	 39.790000 	 100.000000 
370 	 39.819000 	 100.000000 
371 	 39.919000 	 0.000000 
372 	 40.008000 	 0.000000 
373 	 40.001000 	 0.000000 
374 	 40.027000 	 0.000000 
375 	 40.082000 	 0.000000 
376 	 40.103000 	 0.000000 
377 	 40.083000 	 2.823000 
378 	 40.078000 	 6.461000 
379 	 40.112000 	 0.000000 
380 	 40.089000 	 41.113000 
381 	 39.918000 	 100.000000 
382 	 39.942000 	 100.000000 
383 	 40.074000 	 0.000000 
384 	 40.148000 	 0.000000 
385 	 40.164000 	 0.000000 
386 	 40.110000 	 64.617000 
387 	 39.973000 	 100.000000 
388 	 39.987000 	 95.886000 
389 	 40.022000 	 51.519000 
390 	 39.990000 	 91.228000 
391 	 40.015000 	 49.660000 
392 	 40.069000 	 0.000000 
393 	 40.086000 	 0.000000 
394 	 40.117000 	 0.000000 
395 	 40.120000 	 0.000000 
396 	 40.088000 	 33.022000 
397 	 40.033000 	 90.755000 
398 	 40.005000 	 100.000000 
399 	 39.963000 	 100.000000 
400 	 40.039000 	 10.002000 
401 	 40.088000 	 0.000000 
402 	 40.077000 	 6.554000 
403 	 40.016000 	 80.168000 
404 	 40.038000 	 36.805000 
405 	 39.986000 	 95.496000 
406 	 39.947000 	 100.000000 
407 	 39.837000 	 100.000000 
408 	 39.777000 	 100.000000 
409 	 39.744000 	 100.000000 
410 	 39.675000 	 100.000000 
411 	 39.619000 	 100.000000 
412 	 39.568000 	 100.000000 
413 	 39.576000 	 100.000000 
414 	 39.595000 	 100.000000 
415 	 39.593000 	 100.000000 
416 	 39.624000 	 100.000000 
417 	 39.611000 	 100.000000 
418 	 39.595000 	 100.000000 
419 	 39.699000 	 78.996000 
420 	 39.736000 	 72.880000 
421 	 39.699000 	 100.000000 
422 	 39.707000 	 100.000000 
423 	 39.666000 	 100.000000 
424 	 39.620000 	 100.000000 
425 	 39.659000 	 100.000000 
426 	 39.612000 	 100.000000 
427 	 39.504000 	 100.000000 
428 	 39.312000 	 100.000000 
429 	 39.209000 	 100.000000 
430 	 39.319000 	 100.000000 
431 	 39.400000 	 100.000000 
432 	 39.491000 	 100.000000 
433 	 39.708000 	 45.687000 
434 	 39.882000 	 0.000000 
435 	 39.849000 	 64.216000 
436 	 39.783000 	 100.000000 
437 	 39.834000 	 69.516000 
438 	 39.863000 	 40.736000 
439 	 39.942000 	 0.000000 
440 	 39.903000 	 56.649000 
441 	 39.792000 	 100.000000 
442 	 39.794000 	 100.000000 
443 	 39.805000 	 100.000000 
444 	 39.786000 	 100.000000 
445 	 39.703000 	 100.000000 
446 	 39.731000 	 100.000000 
447 	 39.724000 	 100.000000 
448 	 39.687000 	 100.000000 
449 	 39.721000 	 100.000000 
450 	 39.734000 	 100.000000 
451 	 39.717000 	 100.000000 
452 	 39.659000 	 100.000000 
453 	 39.696000 	 100.000000 
454 	 39.692000 	 100.000000 
455 	 39.668000 	 100.000000 
456 	 39.726000 	 100.000000 
457 	 39.835000 	 0.000000 
458 	 39.864000 	 9.757000 
459 	 39.839000 	 70.216000 
460 	 39.883000 	 24.515000 
461 	 40.053000 	 0.000000 
462 	 40.140000 	 0.000000 
463 	 40.043000 	 62.220000 
464 	 39.989000 	 100.000000 
465 	 39.938000 	 100.000000 
466 	 39.823000 	 100.000000 
467 	 39.651000 	 100.000000 
468 	 39.742000 	 100.000000 
469 	 39.776000 	 79.653000 
470 	 39.792000 	 75.461000 
471 	 39.776000 	 100.000000 
472 	 39.722000 	 100.000000 
473 	 39.702000 	 100.000000 
474 	 39.766000 	 89.138000 
475 	 39.815000 	 44.206000 
476 	 39.897000 	 0.000000 
477 	 39.993000 	 0.000000 
478 	 40.004000 	 0.000000 
479 	 39.969000 	 24.523000 
480 	 39.979000 	 4.916000 
481 	 40.083000 	 0.000000 
482 	 40.155000 	 0.000000 
483 	 40.166000 	 0.000000 
484 	 40.188000 	 0.000000 
485 	 40.173000 	 1.838000 
486 	 40.042000 	 100.000000 
487 	 40.005000 	 100.000000 
488 	 39.977000 	 100.000000 
489 	 39.925000 	 100.000000 
490 	 39.791000 	 100.000000 
491 	 39.660000 	 100.000000 
492 	 39.652000 	 100.000000 
493 	 39.697000 	 100.000000 
494 	 39.697000 	 100.000000 
495 	 39.798000 	 25.358000 
496 	 39.785000 	 78.776000 
497 	 39.902000 	 0.000000 
498 	 39.834000 	 96.044000 
499 	 39.893000 	 18.795000 
500 	 39.958000 	 0.000000 
501 	 39.982000 	 0.000000 
502 	 39.975000 	 3.595000 
503 	 39.976000 	 9.096000 
504 	 39.958000 	 46.625000 
505 	 39.838000 	 100.000000 
506 	 39.781000 	 100.000000 
507 	 39.600000 	 100.000000 
508 	 39.531000 	 100.000000 
509 	 39.626000 	 100.000000 
510 	 39.590000 	 100.000000 
511 	 39.571000 	 100.000000 
512 	 39.675000 	 98.111000 
513 	 39.683000 	 100.000000 
514 	 39.691000 	 100.000000 
515 	 39.679000 	 100.000000 
516 	 39.670000 	 100.000000 
517 	 39.808000 	 0.463000 
518 	 39.830000 	 23.201000 
519 	 39.847000 	 50.091000 
520 	 39.806000 	 100.000000 
521 	 39.801000 	 100.000000 
522 	 39.813000 	 97.103000 
523 	 39.765000 	 100.000000 
524 	 39.758000 	 100.000000 
525 	 39.731000 	 100.000000 
526 	 39.650000 	 100.000000 
527 	 39.643000 	 100.000000 
528 	 39.621000 	 100.000000 
529 	 39.648000 	 100.000000 
530 	 39.716000 	 94.334000 
531 	 39.733000 	 98.499000 
532 	 39.764000 	 75.387000 
533 	 39.832000 	 21.414000 
534 	 39.844000 	 38.561000 
535 	 39.912000 	 0.000000 
536 	 39.852000 	 92.911000 
537 	 39.761000 	 100.000000 
538 	 39.683000 	 100.000000 
539 	 39.717000 	 100.000000 
540 	 39.666000 	 100.000000 
541 	 39.630000 	 100.000000 
542 	 39.799000 	 0.288000 
543 	 39.867000 	 0.000000 
544 	 39.809000 	 100.000000 
545 	 39.719000 	 100.000000 
546 	 39.722000 	 100.000000 
547 	 39.651000 	 100.000000 
548 	 39.562000 	 100.000000 
549 	 39.544000 	 100.000000 
550 	 39.482000 	 100.000000 
551 	 39.468000 	 100.000000 
552 	 39.549000 	 100.000000 
553 	 39.537000 	 100.000000 
554 	 39.563000 	 100.000000 
555 	 39.562000 	 100.000000 
556 	 39.604000 	 100.000000 
557 	 39.593000 	 100.000000 
558 	 39.624000 	 100.000000 
559 	 39.735000 	 37.964000 
560 	 39.916000 	 0.000000 
561 	 39.999000 	 0.000000 
562 	 39.870000 	 100.000000 
563 	 39.799000 	 100.000000 
564 	 39.794000 	 100.000000 
565 	 39.739000 	 100.000000 
566 	 39.728000 	 100.000000 
567 	 39.716000 	 100.000000 
568 	 39.755000 	 100.000000 
569 	 39.629000 	 100.000000 
570 	 39.640000 	 100.000000 
571 	 39.692000 	 100.000000 
572 	 39.573000 	 100.000000 
573 	 39.457000 	 100.000000 
574 	 39.485000 	 100.000000 
575 	 39.515000 	 100.000000 
576 	 39.511000 	 100.000000 
577 	 39.608000 	 100.000000 
578 	 39.628000 	 100.000000 
579 	 39.679000 	 95.702000 
580 	 39.655000 	 100.000000 
581 	 39.744000 	 55.566000 
582 	 39.779000 	 57.011000 
583 	 39.883000 	 0.000000 
584 	 39.991000 	 0.000000 
585 	 39.935000 	 33.507000 
586 	 39.781000 	 100.000000 
587 	 39.734000 	 100.000000 
588 	 39.772000 	 100.000000 
589 	 39.978000 	 0.000000 
590 	 40.037000 	 0.000000 
591 	 40.088000 	 0.000000 
592 	 40.096000 	 0.000000 
593 	 40.019000 	 72.052000 
594 	 39.992000 	 92.014000 
595 	 39.961000 	 100.000000 
596 	 39.907000 	 100.000000 
597 	 39.851000 	 100.000000 
598 	 39.903000 	 71.734000 
599 	 39.836000 	 100.000000 
600 	 39.874000 	 77.279000 
601 	 39.837000 	 100.000000 
602 	 39.749000 	 100.000000 
603 	 39.806000 	 95.805000 
604 	 39.898000 	 0.000000 
605 	 39.938000 	 0.000000 
606 	 39.926000 	 22.978000 
607 	 39.889000 	 78.703000 
608 	 39.946000 	 5.410000 
609 	 39.978000 	 0.000000 
610 	 40.017000 	 0.000000 
611 	 40.138000 	 0.000000 
612 	 40.123000 	 0.000000 
613 	 40.067000 	 71.379000 
614 	 40.045000 	 83.693000 
615 	 40.026000 	 93.856000 
616 	 40.021000 	 81.185000 
617 	 40.003000 	 100.000000 
618 	 40.014000 	 76.014000 
619 	 39.893000 	 100.000000 
620 	 39.779000 	 100.000000 
621 	 39.838000 	 91.407000 
622 	 39.758000 	 100.000000 
623 	 39.798000 	 100.000000 
624 	 39.847000 	 44.429000 
625 	 39.906000 	 0.000000 
626 	 39.937000 	 0.000000 
627 	 39.988000 	 0.000000 
628 	 39.859000 	 100.000000 
629 	 40.025000 	 0.000000 
630 	 40.132000 	 0.000000 
631 	 40.184000 	 0.000000 
632 	 40.117000 	 41.568000 
633 	 40.086000 	 65.318000 
634 	 40.090000 	 55.987000 
635 	 40.057000 	 83.364000 
636 	 40.052000 	 80.084000 
637 	 39.986000 	 100.000000 
638 	 39.950000 	 100.000000 
639 	 39.975000 	 90.679000 
640 	 39.978000 	 78.792000 
641 	 39.880000 	 100.000000 
642 	 39.904000 	 100.000000 
643 	 39.917000 	 92.724000 
644 	 39.915000 	 95.411000 
645 	 39.896000 	 100.000000 
646 	 39.817000 	 100.000000 
647 	 39.778000 	 100.000000 
648 	 39.751000 	 100.000000 
649 	 39.783000 	 100.000000 
650 	 39.862000 	 14.341000 
651 	 39.903000 	 0.000000 
652 	 39.880000 	 55.568000 
653 	 39.860000 	 85.449000 
654 	 39.942000 	 0.000000 
655 	 39.936000 	 27.639000 
656 	 39.918000 	 54.059000 
657 	 39.994000 	 0.000000 
658 	 40.105000 	 0.000000 
659 	 40.134000 	 0.000000 
660 	 40.121000 	 0.000000 
661 	 40.140000 	 0.000000 
662 	 40.113000 	 16.514000 
663 	 40.066000 	 67.498000 
664 	 40.045000 	 71.208000 
665 	 40.098000 	 0.000000 
666 	 40.108000 	 0.000000 
667 	 40.050000 	 65.177000 
668 	 39.955000 	 100.000000 
669 	 39.934000 	 100.000000 
670 	 39.876000 	 100.000000 
671 	 39.770000 	 100.000000 
672 	 39.738000 	 100.000000 
673 	 39.705000 	 100.000000 
674 	 39.636000 	 100.000000 
675 	 39.630000 	 100.000000 
676 	 39.617000 	 100.000000 
677 	 39.575000 	 100.000000 
678 	 39.551000 	 100.000000 
679 	 39.547000 	 100.000000 
680 	 39.581000 	 100.000000 
681 	 39.729000 	 35.408000 
682 	 39.741000 	 73.133000 
683 	 39.682000 	 100.000000 
684 	 39.641000 	 100.000000 
685 	 39.673000 	 100.000000 
686 	 39.660000 	 100.000000 
687 	 39.669000 	 100.000000 
688 	 39.659000 	 100.000000 
689 	 39.708000 	 100.000000 
690 	 39.803000 	 9.580000 
691 	 39.835000 	 22.153000 
692 	 39.784000 	 100.000000 
693 	 39.792000 	 94.356000 
694 	 39.777000 	 100.000000 
695 	 39.723000 	 100.000000 
696 	 39.738000 	 100.000000 
697 	 39.713000 	 100.000000 
698 	 39.696000 	 100.000000 
699 	 39.645000 	 100.000000 
700 	 39.593000 	 100.000000 
701 	 39.526000 	 100.000000 
702 	 39.534000 	 100.000000 
703 	 39.628000 	 100.000000 
704 	 39.657000 	 100.000000 
705 	 39.680000 	 100.000000 
706 	 39.737000 	 75.190000 
707 	 39.746000 	 92.351000 
708 	 39.691000 	 100.000000 
709 	 39.659000 	 100.000000 
710 	 39.656000 	 100.000000 
711 	 39.593000 	 100.000000 
712 	 39.526000 	 100.000000 
713 	 39.508000 	 100.000000 
714 	 39.558000 	 100.000000 
715 	 39.709000 	 45.311000 
716 	 39.838000 	 0.000000 
717 	 39.851000 	 19.466000 
718 	 39.887000 	 11.448000 
719 	 39.897000 	 23.811000 
720 	 39.887000 	 55.929000 
721 	 39.875000 	 78.124000 
722 	 39.896000 	 49.035000 
723 	 39.976000 	 0.000000 
724 	 40.103000 	 0.000000 
725 	 40.091000 	 0.000000 
726 	 40.056000 	 22.858000 
727 	 40.056000 	 20.856000 
728 	 40.069000 	 0.000000 
729 	 40.059000 	 19.716000 
730 	 40.056000 	 14.107000 
731 	 40.108000 	 0.000000 
732 	 40.099000 	 0.000000 
733 	 40.064000 	 43.326000 
734 	 40.039000 	 61.163000 
735 	 39.987000 	 100.000000 
736 	 39.966000 	 100.000000 
737 	 39.946000 	 100.000000 
738 	 39.903000 	 100.000000 
739 	 39.899000 	 100.000000 
740 	 39.912000 	 96.847000 
741 	 39.958000 	 38.344000 
742 	 40.040000 	 0.000000 
743 	 40.038000 	 0.000000 
744 	 40.031000 	 18.251000 
745 	 39.988000 	 81.398000 
746 	 39.939000 	 100.000000 
747 	 39.871000 	 100.000000 
748 	 39.826000 	 100.000000 
749 	 39.820000 	 100.000000 
750 	 39.839000 	 94.308000 
751 	 39.822000 	 100.000000 
752 	 39.807000 	 100.000000 
753 	 39.794000 	 100.000000 
754 	 39.785000 	 100.000000 
755 	 39.651000 	 100.000000 
756 	 39.596000 	 100.000000 
757 	 39.634000 	 100.000000 
758 	 39.663000 	 100.000000 
759 	 39.706000 	 100.000000 
760 	 39.678000 	 100.000000 
761 	 39.606000 	 100.000000 
762 	 39.608000 	 100.000000 
763 	 39.686000 	 100.000000 
764 	 39.789000 	 5.177000 
765 	 39.761000 	 89.125000 
766 	 39.762000 	 100.000000 
767 	 39.734000 	 100.000000 
768 	 39.752000 	 100.000000 
769 	 39.779000 	 89.901000 
770 	 39.778000 	 100.000000 
771 	 39.712000 	 100.000000 
772 	 39.661000 	 100.000000 
773 	 39.702000 	 100.000000 
774 	 39.717000 	 100.000000 
775 	 39.634000 	 100.000000 
776 	 39.664000 	 100.000000 
777 	 39.559000 	 100.000000 
778 	 39.558000 	 100.000000 
779 	 39.572000 	 100.000000 
780 	 39.625000 	 100.000000 
781 	 39.656000 	 100.000000 
782 	 39.700000 	 95.897000 
783 	 39.653000 	 100.000000 
784 	 39.677000 	 100.000000 
785 	 39.668000 	 100.000000 
786 	 39.619000 	 100.000000 
787 	 39.659000 	 100.000000 
788 	 39.763000 	 37.786000 
789 	 39.892000 	 0.000000 
790 	 39.925000 	 0.000000 
791 	 39.907000 	 32.313000 
792 	 39.923000 	 21.639000 
793 	 39.896000 	 70.877000 
794 	 39.872000 	 97.270000 
795 	 39.955000 	 0.000000 
796 	 39.973000 	 0.000000 
797 	 40.036000 	 0.000000 
798 	 40.064000 	 0.000000 
799 	 39.952000 	 100.000000 
800 	 39.944000 	 95.511000 
801 	 39.977000 	 30.927000 
802 	 40.040000 	 0.000000 
803 	 39.942000 	 100.000000 
804 	 39.900000 	 100.000000 
805 	 39.932000 	 76.721000 
806 	 40.018000 	 0.000000 
807 	 40.015000 	 8.085000 
808 	 39.987000 	 51.614000 
809 	 40.039000 	 0.000000 
810 	 40.053000 	 0.000000 
811 	 40.095000 	 0.000000 
812 	 40.197000 	 0.000000 
813 	 40.054000 	 100.000000 
814 	 40.070000 	 77.904000 
815 	 40.062000 	 75.876000 
816 	 40.092000 	 32.182000 
817 	 40.142000 	 0.000000 
818 	 40.147000 	 0.000000 
819 	 40.017000 	 100.000000 
820 	 39.963000 	 100.000000 
821 	 40.007000 	 85.719000 
822 	 40.021000 	 56.622000 
823 	 40.048000 	 39.139000 
824 	 39.951000 	 100.000000 
825 	 39.886000 	 100.000000 
826 	 39.870000 	 100.000000 
827 	 39.848000 	 100.000000 
828 	 39.936000 	 17.767000 
829 	 39.943000 	 31.512000 
830 	 39.959000 	 23.818000 
831 	 39.932000 	 70.720000 
832 	 39.935000 	 70.549000 
833 	 39.933000 	 68.910000 
834 	 39.898000 	 100.000000 
835 	 39.866000 	 100.000000 
836 	 39.853000 	 100.000000 
837 	 39.904000 	 44.623000 
838 	 39.711000 	 100.000000 
839 	 39.578000 	 100.000000 
840 	 39.575000 	 100.000000 
841 	 39.675000 	 100.000000 
842 	 39.726000 	 79.228000 
843 	 39.767000 	 53.362000 
844 	 39.784000 	 67.527000 
845 	 39.765000 	 100.000000 
846 	 39.722000 	 100.000000 
847 	 39.710000 	 100.000000 
848 	 39.806000 	 38.724000 
849 	 39.853000 	 15.352000 
850 	 39.895000 	 0.000000 
851 	 39.907000 	 17.134000 
852 	 39.875000 	 70.080000 
853 	 39.956000 	 0.000000 
854 	 39.991000 	 0.000000 
855 	 39.990000 	 0.000000 
856 	 39.967000 	 35.812000 
857 	 39.936000 	 75.659000 
858 	 39.864000 	 100.000000 
859 	 39.810000 	 100.000000 
860 	 39.864000 	 60.932000 
861 	 39.837000 	 100.000000 
862 	 39.701000 	 100.000000 
863 	 39.649000 	 100.000000 
864 	 39.618000 	 100.000000 
865 	 39.573000 	 100.000000 
866 	 39.566000 	 100.000000 
867 	 39.570000 	 100.000000 
868 	 39.659000 	 100.000000 
869 	 39.690000 	 100.000000 
870 	 39.692000 	 100.000000 
871 	 39.558000 	 100.000000 
872 	 39.573000 	 100.000000 
873 	 39.502000 	 100.000000 
874 	 39.438000 	 100.000000 
875 	 39.432000 	 100.000000 
876 	 39.348000 	 100.000000 
877 	 39.287000 	 100.000000 
878 	 39.296000 	 100.000000 
879 	 39.356000 	 100.000000 
880 	 39.353000 	 100.000000 
881 	 39.345000 	 100.000000 
882 	 39.368000 	 100.000000 
883 	 39.408000 	 100.000000 
884 	 39.446000 	 100.000000 
885 	 39.396000 	 100.000000 
886 	 39.361000 	 100.000000 
887 	 39.375000 	 100.000000 
888 	 39.450000 	 100.000000 
889 	 39.501000 	 100.000000 
890 	 39.595000 	 100.000000 
891 	 39.515000 	 100.000000 
892 	 39.559000 	 100.000000 
893 	 39.564000 	 100.000000 
894 	 39.530000 	 100.000000 
895 	 39.538000 	 100.000000 
896 	 39.540000 	 100.000000 
897 	 39.494000 	 100.000000 
898 	 39.506000 	 100.000000 
899 	 39.518000 	 100.000000 
900 	 39.504000 	 100.000000 
901 	 39.507000 	 100.000000 
902 	 39.555000 	 100.000000 
903 	 39.639000 	 98.999000 
904 	 39.674000 	 95.653000 
905 	 39.739000 	 46.464000 
906 	 39.846000 	 0.000000 
907 	 39.791000 	 99.273000 
908 	 39.745000 	 100.000000 
909 	 39.776000 	 100.000000 
910 	 39.807000 	 77.710000 
911 	 39.794000 	 97.890000 
912 	 39.762000 	 100.000000 
913 	 39.738000 	 100.000000 
914 	 39.772000 	 100.000000 
915 	 39.766000 	 100.000000 
916 	 39.766000 	 100.000000 
917 	 39.765000 	 100.000000 
918 	 39.716000 	 100.000000 
919 	 39.563000 	 100.000000 
920 	 39.573000 	 100.000000 
921 	 39.640000 	 100.000000 
922 	 39.699000 	 97.932000 
923 	 39.769000 	 39.103000 
924 	 39.726000 	 100.000000 
925 	 39.732000 	 100.000000 
926 	 39.714000 	 100.000000 
927 	 39.748000 	 100.000000 
928 	 39.803000 	 48.570000 
929 	 39.847000 	 16.957000 
930 	 39.843000 	 57.298000 
931 	 39.846000 	 71.725000 
932 	 39.866000 	 59.308000 
933 	 39.872000 	 66.064000 
934 	 39.804000 	 100.000000 
935 	 39.838000 	 82.061000 
936 	 39.837000 	 90.151000 
937 	 39.898000 	 12.007000 
938 	 39.995000 	 0.000000 
939 	 40.009000 	 0.000000 
940 	 39.994000 	 0.000000 
941 	 39.985000 	 22.780000 
942 	 39.975000 	 36.116000 
943 	 39.980000 	 24.448000 
944 	 39.905000 	 100.000000 
945 	 39.884000 	 100.000000 
946 	 39.908000 	 70.769000 
947 	 39.897000 	 76.386000 
948 	 39.959000 	 13.512000 
949 	 39.927000 	 65.921000 
950 	 39.906000 	 93.720000 
951 	 39.886000 	 100.000000 
952 	 39.858000 	 100.000000 
953 	 39.894000 	 72.808000 
954 	 39.891000 	 83.313000 
955 	 39.926000 	 45.879000 
956 	 39.954000 	 30.299000 
957 	 39.984000 	 16.073000 
958 	 39.922000 	 100.000000 
959 	 39.865000 	 100.000000 
960 	 39.832000 	 100.000000 
961 	 39.849000 	 100.000000 
962 	 39.829000 	 100.000000 
963 	 39.862000 	 74.691000 
964 	 39.901000 	 39.147000 
965 	 39.968000 	 0.000000 
966 	 39.953000 	 24.726000 
967 	 39.955000 	 30.048000 
968 	 39.971000 	 26.784000 
969 	 39.876000 	 100.000000 
970 	 39.830000 	 100.000000 
971 	 39.834000 	 100.000000 
972 	 39.864000 	 73.405000 
973 	 39.836000 	 100.000000 
974 	 39.809000 	 100.000000 
975 	 39.787000 	 100.000000 
976 	 39.802000 	 100.000000 
977 	 39.852000 	 44.305000 
978 	 39.911000 	 0.000000 
979 	 39.868000 	 82.228000 
980 	 39.854000 	 93.266000 
981 	 39.862000 	 88.821000 
982 	 39.874000 	 74.595000 
983 	 39.879000 	 81.093000 
984 	 39.842000 	 100.000000 
985 	 39.847000 	 99.085000 
986 	 39.850000 	 98.984000 
987 	 39.817000 	 100.000000 
988 	 39.766000 	 100.000000 
989 	 39.691000 	 100.000000 
990 	 39.611000 	 100.000000 
991 	 39.658000 	 100.000000 
992 	 39.702000 	 100.000000 
993 	 39.701000 	 100.000000 
994 	 39.688000 	 100.000000 
995 	 39.647000 	 100.000000 
996 	 39.590000 	 100.000000 
997 	 39.593000 	 100.000000 
998 	 39.598000 	 100.000000 
999 	 39.706000 	 74.756000 
1000 	 39.670000 	 100.000000 
1001 	 39.667000 	 100.000000 
1002 	 39.656000 	 100.000000 
1003 	 39.711000 	 100.000000 
1004 	 39.712000 	 100.000000 
1005 	 39.755000 	 78.832000 
1006 	 39.739000 	 100.000000 
1007 	 39.713000 	 100.000000 
1008 	 39.725000 	 100.000000 
1009 	 39.731000 	 100.000000 
1010 	 39.706000 	 100.000000 
1011 	 39.713000 	 100.000000 
1012 	 39.736000 	 100.000000 
1013 	 39.727000 	 100.000000 
1014 	 39.764000 	 87.429000 
1015 	 39.711000 	 100.000000 
1016 	 39.626000 	 100.000000 
1017 	 39.646000 	 100.000000 
1018 	 39.779000 	 29.595000 
1019 	 39.884000 	 0.000000 
1020 	 39.864000 	 47.517000 
1021 	 39.794000 	 100.000000 
1022 	 39.848000 	 53.258000 
1023 	 39.821000 	 100.000000 
1024 	 39.835000 	 87.324000 
1025 	 39.863000 	 60.301000 
1026 	 39.903000 	 24.642000 
1027 	 39.908000 	 43.109000 
1028 	 39.839000 	 100.000000 
1029 	 39.814000 	 100.000000 
1030 	 39.822000 	 100.000000 
1031 	 39.908000 	 6.255000 
1032 	 39.913000 	 36.176000 
1033 	 39.864000 	 100.000000 
1034 	 39.873000 	 86.871000 
1035 	 39.908000 	 52.379000 
1036 	 39.831000 	 100.000000 
1037 	 39.817000 	 100.000000 
1038 	 39.816000 	 100.000000 
1039 	 39.802000 	 100.000000 
1040 	 39.913000 	 0.000000 
1041 	 39.902000 	 28.215000 
1042 	 39.845000 	 100.000000 
1043 	 39.789000 	 100.000000 
1044 	 39.832000 	 75.662000 
1045 	 39.886000 	 18.481000 
1046 	 39.928000 	 0.000000 
1047 	 39.870000 	 86.688000 
1048 	 39.836000 	 100.000000 
1049 	 39.776000 	 100.000000 
1050 	 39.817000 	 85.258000 
1051 	 39.859000 	 45.054000 
1052 	 39.833000 	 93.927000 
1053 	 39.854000 	 69.896000 
1054 	 39.894000 	 33.851000 
1055 	 39.801000 	 100.000000 
1056 	 39.714000 	 100.000000 
1057 	 39.646000 	 100.000000 
1058 	 39.728000 	 100.000000 
1059 	 39.599000 	 100.000000 
1060 	 39.702000 	 100.000000 
1061 	 39.783000 	 34.416000 
1062 	 39.854000 	 0.000000 
1063 	 39.895000 	 0.000000 
1064 	 39.911000 	 4.843000 
1065 	 39.909000 	 31.838000 
1066 	 39.903000 	 52.806000 
1067 	 39.925000 	 29.941000 
1068 	 39.930000 	 38.588000 
1069 	 39.821000 	 100.000000 
1070 	 39.745000 	 100.000000 
1071 	 39.725000 	 100.000000 
1072 	 39.721000 	 100.000000 
1073 	 39.811000 	 49.357000 
1074 	 39.761000 	 100.000000 
1075 	 39.759000 	 100.000000 
1076 	 39.752000 	 100.000000 
1077 	 39.810000 	 59.075000 
1078 	 39.839000 	 49.715000 
1079 	 39.830000 	 78.971000 
1080 	 39.859000 	 54.658000 
1081 	 39.906000 	 17.496000 
1082 	 39.965000 	 0.000000 
1083 	 39.978000 	 0.000000 
1084 	 39.922000 	 81.589000 
1085 	 39.908000 	 91.979000 
1086 	 39.887000 	 100.000000 
1087 	 39.864000 	 100.000000 
1088 	 39.824000 	 100.000000 
1089 	 39.773000 	 100.000000 
1090 	 39.769000 	 100.000000 
1091 	 39.769000 	 100.000000 
1092 	 39.714000 	 100.000000 
1093 	 39.627000 	 100.000000 
1094 	 39.638000 	 100.000000 
1095 	 39.598000 	 100.000000 
1096 	 39.556000 	 100.000000 
1097 	 39.356000 	 100.000000 
1098 	 39.335000 	 100.000000 
1099 	 39.352000 	 100.000000 
1100 	 39.381000 	 100.000000 
1101 	 39.406000 	 100.000000 
1102 	 39.495000 	 100.000000 
1103 	 39.530000 	 100.000000 
1104 	 39.449000 	 100.000000 
1105 	 39.385000 	 100.000000 
1106 	 39.506000 	 100.000000 
1107 	 39.635000 	 82.178000 
1108 	 39.658000 	 100.000000 
1109 	 39.585000 	 100.000000 
1110 	 39.555000 	 100.000000 
1111 	 39.529000 	 100.000000 
1112 	 39.461000 	 100.000000 
1113 	 39.403000 	 100.000000 
1114 	 39.401000 	 100.000000 
1115 	 39.389000 	 100.000000 
1116 	 39.384000 	 100.000000 
1117 	 39.393000 	 100.000000 
1118 	 39.454000 	 100.000000 
1119 	 39.468000 	 100.000000 
1120 	 39.463000 	 100.000000 
1121 	 39.439000 	 100.000000 
1122 	 39.491000 	 100.000000 
1123 	 39.628000 	 85.659000 
1124 	 39.691000 	 57.812000 
1125 	 39.766000 	 16.523000 
1126 	 39.840000 	 0.000000 
1127 	 39.886000 	 0.000000 
1128 	 39.917000 	 0.000000 
1129 	 39.895000 	 46.940000 
1130 	 39.848000 	 100.000000 
1131 	 39.933000 	 0.000000 
1132 	 39.910000 	 55.454000 
1133 	 39.856000 	 100.000000 
1134 	 39.877000 	 84.071000 
1135 	 39.904000 	 58.256000 
1136 	 39.925000 	 40.064000 
1137 	 39.898000 	 88.365000 
1138 	 39.758000 	 100.000000 
1139 	 39.696000 	 100.000000 
1140 	 39.744000 	 100.000000 
1141 	 39.782000 	 86.564000 
1142 	 39.786000 	 90.938000 
1143 	 39.785000 	 99.553000 
1144 	 39.767000 	 100.000000 
1145 	 39.698000 	 100.000000 
1146 	 39.668000 	 100.000000 
1147 	 39.639000 	 100.000000 
1148 	 39.613000 	 100.000000 
1149 	 39.547000 	 100.000000 
1150 	 39.614000 	 100.000000 
1151 	 39.793000 	 3.256000 
1152 	 39.821000 	 27.182000 
1153 	 39.840000 	 40.919000 
1154 	 39.777000 	 100.000000 
1155 	 39.803000 	 93.370000 
1156 	 39.817000 	 84.731000 
1157 	 39.816000 	 93.236000 
1158 	 39.758000 	 100.000000 
1159 	 39.617000 	 100.000000 
1160 	 39.557000 	 100.000000 
1161 	 39.542000 	 100.000000 
1162 	 39.656000 	 100.000000 
1163 	 39.629000 	 100.000000 
1164 	 39.630000 	 100.000000 
1165 	 39.688000 	 100.000000 
1166 	 39.833000 	 0.000000 
1167 	 39.897000 	 0.000000 
1168 	 39.965000 	 0.000000 
1169 	 39.986000 	 0.000000 
1170 	 39.969000 	 9.919000 
1171 	 39.901000 	 98.412000 
1172 	 39.881000 	 100.000000 
1173 	 39.863000 	 100.000000 
1174 	 39.833000 	 100.000000 
1175 	 39.793000 	 100.000000 
1176 	 39.816000 	 99.123000 
1177 	 39.893000 	 6.460000 
1178 	 39.973000 	 0.000000 
1179 	 40.029000 	 0.000000 
1180 	 40.023000 	 0.000000 
1181 	 40.087000 	 0.000000 
1182 	 40.062000 	 1.131000 
1183 	 40.034000 	 39.673000 
1184 	 40.051000 	 10.689000 
1185 	 39.969000 	 100.000000 
1186 	 39.900000 	 100.000000 
1187 	 39.875000 	 100.000000 
1188 	 39.852000 	 100.000000 
1189 	 39.876000 	 95.394000 
1190 	 39.879000 	 94.976000 
1191 	 39.860000 	 100.000000 
1192 	 39.776000 	 100.000000 
1193 	 39.766000 	 100.000000 
1194 	 39.620000 	 100.000000 
1195 	 39.588000 	 100.000000 
1196 	 39.572000 	 100.000000 
1197 	 39.535000 	 100.000000 
1198 	 39.459000 	 100.000000 
1199 	 39.460000 	 100.000000 
1200 	 39.448000 	 100.000000 
1201 	 39.448000 	 100.000000 
1202 	 39.480000 	 100.000000 
1203 	 39.448000 	 100.000000 
1204 	 39.462000 	 100.000000 
1205 	 39.404000 	 100.000000 
1206 	 39.412000 	 100.000000 
1207 	 39.437000 	 100.000000 
1208 	 39.473000 	 100.000000 
1209 	 39.494000 	 100.000000 
1210 	 39.455000 	 100.000000 
1211 	 39.471000 	 100.000000 
1212 	 39.539000 	 100.000000 
1213 	 39.550000 	 100.000000 
1214 	 39.512000 	 100.000000 
1215 	 39.525000 	 100.000000 
1216 	 39.563000 	 100.000000 
1217 	 39.552000 	 100.000000 
1218 	 39.573000 	 100.000000 
1219 	 39.496000 	 100.000000 
1220 	 39.513000 	 100.000000 
1221 	 39.452000 	 100.000000 
1222 	 39.454000 	 100.000000 
1223 	 39.399000 	 100.000000 
1224 	 39.556000 	 100.000000 
1225 	 39.693000 	 58.084000 
1226 	 39.649000 	 100.000000 
1227 	 39.627000 	 100.000000 
1228 	 39.611000 	 100.000000 
1229 	 39.617000 	 100.000000 
1230 	 39.526000 	 100.000000 
1231 	 39.551000 	 100.000000 
1232 	 39.557000 	 100.000000 
1233 	 39.470000 	 100.000000 
1234 	 39.434000 	 100.000000 
1235 	 39.467000 	 100.000000 
1236 	 39.514000 	 100.000000 
1237 	 39.527000 	 100.000000 
1238 	 39.555000 	 100.000000 
1239 	 39.579000 	 100.000000 
1240 	 39.637000 	 100.000000 
1241 	 39.672000 	 100.000000 
1242 	 39.701000 	 97.956000 
1243 	 39.735000 	 83.217000 
1244 	 39.728000 	 100.000000 
1245 	 39.729000 	 100.000000 
1246 	 39.729000 	 100.000000 
1247 	 39.747000 	 100.000000 
1248 	 39.813000 	 34.764000 
1249 	 39.895000 	 0.000000 
1250 	 39.909000 	 0.000000 
1251 	 39.907000 	 26.008000 
1252 	 39.948000 	 0.000000 
1253 	 39.989000 	 0.000000 
1254 	 40.022000 	 0.000000 
1255 	 40.082000 	 0.000000 
1256 	 39.926000 	 100.000000 
1257 	 39.719000 	 100.000000 
1258 	 39.609000 	 100.000000 
1259 	 39.629000 	 100.000000 
1260 	 39.653000 	 100.000000 
1261 	 39.762000 	 41.556000 
1262 	 39.814000 	 21.742000 
1263 	 39.866000 	 0.000000 
1264 	 39.934000 	 0.000000 
1265 	 39.952000 	 0.000000 
1266 	 40.006000 	 0.000000 
1267 	 40.071000 	 0.000000 
1268 	 40.008000 	 57.705000 
1269 	 40.006000 	 50.053000 
1270 	 40.096000 	 0.000000 
1271 	 40.219000 	 0.000000 
1272 	 40.278000 	 0.000000 
1273 	 40.344000 	 0.000000 
1274 	 40.393000 	 0.000000 
1275 	 40.348000 	 0.000000 
1276 	 40.266000 	 22.255000 
1277 	 40.247000 	 16.220000 
1278 	 40.184000 	 73.943000 
1279 	 40.164000 	 55.544000 
1280 	 40.277000 	 0.000000 
1281 	 40.385000 	 0.000000 
1282 	 40.425000 	 0.000000 
1283 	 40.419000 	 0.000000 
1284 	 40.427000 	 0.000000 
1285 	 40.467000 	 0.000000 
1286 	 40.469000 	 0.000000 
1287 	 40.468000 	 0.000000 
1288 	 40.448000 	 0.000000 
1289 	 40.410000 	 0.000000 
1290 	 40.417000 	 0.000000 
1291 	 40.372000 	 0.000000 
1292 	 40.307000 	 14.110000 
1293 	 40.168000 	 100.000000 
1294 	 40.120000 	 100.000000 
1295 	 40.098000 	 99.905000 
1296 	 40.174000 	 0.000000 
1297 	 40.198000 	 0.000000 
1298 	 40.252000 	 0.000000 
1299 	 40.310000 	 0.000000 
1300 	 40.336000 	 0.000000 
1301 	 40.331000 	 0.000000 
1302 	 40.309000 	 0.000000 
1303 	 40.319000 	 0.000000 
1304 	 40.313000 	 0.000000 
1305 	 40.288000 	 0.000000 
1306 	 40.271000 	 0.000000 
1307 	 40.206000 	 54.016000 
1308 	 40.186000 	 44.762000 
1309 	 40.167000 	 41.438000 
1310 	 40.039000 	 100.000000 
1311 	 39.829000 	 100.000000 
1312 	 39.772000 	 100.000000 
1313 	 39.767000 	 100.000000 
1314 	 39.778000 	 100.000000 
1315 	 39.806000 	 83.937000 
1316 	 39.869000 	 15.057000 
1317 	 39.907000 	 0.000000 
1318 	 39.934000 	 0.000000 
1319 	 39.919000 	 41.445000 
1320 	 39.883000 	 89.586000 
1321 	 39.862000 	 100.000000 
1322 	 39.879000 	 81.111000 
1323 	 39.905000 	 49.785000 
1324 	 39.929000 	 33.437000 
1325 	 39.920000 	 60.703000 
1326 	 39.900000 	 89.200000 
1327 	 39.886000 	 100.000000 
1328 	 39.874000 	 100.000000 
1329 	 39.842000 	 100.000000 
1330 	 39.793000 	 100.000000 
1331 	 39.761000 	 100.000000 
1332 	 39.717000 	 100.000000 
1333 	 39.699000 	 100.000000 
1334 	 39.561000 	 100.000000 
1335 	 39.431000 	 100.000000 
1336 	 39.289000 	 100.000000 
1337 	 39.228000 	 100.000000 
1338 	 39.283000 	 100.000000 
1339 	 39.294000 	 100.000000 
1340 	 39.338000 	 100.000000 
1341 	 39.424000 	 100.000000 
1342 	 39.469000 	 100.000000 
1343 	 39.494000 	 100.000000 
1344 	 39.494000 	 100.000000 
1345 	 39.500000 	 100.000000 
1346 	 39.451000 	 100.000000 
1347 	 39.448000 	 100.000000 
1348 	 39.399000 	 100.000000 
1349 	 39.388000 	 100.000000 
1350 	 39.309000 	 100.000000 
1351 	 39.116000 	 100.000000 
1352 	 39.083000 	 100.000000 
1353 	 39.132000 	 100.000000 
1354 	 39.162000 	 100.000000 
1355 	 39.227000 	 100.000000 
1356 	 39.316000 	 100.000000 
1357 	 39.381000 	 100.000000 
1358 	 39.402000 	 100.000000 
1359 	 39.327000 	 100.000000 
1360 	 39.253000 	 100.000000 
1361 	 39.232000 	 100.000000 
1362 	 39.232000 	 100.000000 
1363 	 39.281000 	 100.000000 
1364 	 39.379000 	 100.000000 
1365 	 39.342000 	 100.000000 
1366 	 39.326000 	 100.000000 
1367 	 39.363000 	 100.000000 
1368 	 39.378000 	 100.000000 
1369 	 39.405000 	 100.000000 
1370 	 39.446000 	 100.000000 
1371 	 39.457000 	 100.000000 
1372 	 39.473000 	 100.000000 
1373 	 39.568000 	 100.000000 
1374 	 39.665000 	 67.368000 
1375 	 39.773000 	 13.304000 
1376 	 39.829000 	 28.936000 
1377 	 39.862000 	 20.789000 
1378 	 39.877000 	 39.754000 
1379 	 39.787000 	 100.000000 
1380 	 39.777000 	 100.000000 
1381 	 39.816000 	 80.092000 
1382 	 39.851000 	 46.917000 
1383 	 39.878000 	 32.903000 
1384 	 39.927000 	 0.000000 
1385 	 39.955000 	 0.000000 
1386 	 39.998000 	 0.000000 
1387 	 40.008000 	 0.000000 
1388 	 40.019000 	 0.000000 
1389 	 40.069000 	 0.000000 
1390 	 40.157000 	 0.000000 
1391 	 40.260000 	 0.000000 
1392 	 40.179000 	 15.683000 
1393 	 40.150000 	 44.204000 
1394 	 40.105000 	 81.432000 
1395 	 40.147000 	 3.193000 
1396 	 40.197000 	 0.000000 
1397 	 40.269000 	 0.000000 
1398 	 40.174000 	 51.223000 
1399 	 40.136000 	 64.601000 
1400 	 40.219000 	 0.000000 
1401 	 40.309000 	 0.000000 
1402 	 40.385000 	 0.000000 
1403 	 40.361000 	 0.000000 
1404 	 40.386000 	 0.000000 
1405 	 40.396000 	 0.000000 
1406 	 40.427000 	 0.000000 
1407 	 40.563000 	 0.000000 
1408 	 40.613000 	 0.000000 
1409 	 40.625000 	 0.000000 
1410 	 40.594000 	 0.000000 
1411 	 40.465000 	 0.000000 
1412 	 40.482000 	 0.000000 
1413 	 40.506000 	 0.000000 
1414 	 40.521000 	 0.000000 
1415 	 40.520000 	 0.000000 
1416 	 40.522000 	 0.000000 
1417 	 40.498000 	 0.000000 
1418 	 40.489000 	 0.000000 
1419 	 40.483000 	 0.000000 
1420 	 40.479000 	 0.000000 
1421 	 40.480000 	 0.000000 
1422 	 40.459000 	 0.000000 
1423 	 40.418000 	 0.000000 
1424 	 40.373000 	 0.000000 
1425 	 40.329000 	 0.000000 
1426 	 40.207000 	 96.339000 
1427 	 40.122000 	 100.000000 
1428 	 40.038000 	 100.000000 
1429 	 40.027000 	 100.000000 
1430 	 39.997000 	 100.000000 
1431 	 39.960000 	 100.000000 
1432 	 39.957000 	 100.000000 
1433 	 39.884000 	 100.000000 
1434 	 39.834000 	 100.000000 
1435 	 39.871000 	 94.284000 
1436 	 39.921000 	 32.409000 
1437 	 39.944000 	 21.445000 
1438 	 39.919000 	 67.032000 
1439 	 39.920000 	 60.933000 
1440 	 39.945000 	 35.239000 
1441 	 39.910000 	 94.107000 
1442 	 39.863000 	 100.000000 
1443 	 39.862000 	 100.000000 
1444 	 39.915000 	 48.040000 
1445 	 39.930000 	 48.074000 
1446 	 39.987000 	 0.000000 
1447 	 39.961000 	 46.032000 
1448 	 39.949000 	 64.221000 
1449 	 39.932000 	 84.614000 
1450 	 39.935000 	 78.809000 
1451 	 39.896000 	 100.000000 
1452 	 40.001000 	 0.000000 
1453 	 40.128000 	 0.000000 
1454 	 40.077000 	 18.015000 
1455 	 40.059000 	 38.789000 
1456 	 40.036000 	 64.326000 
1457 	 40.027000 	 63.492000 
1458 	 39.963000 	 100.000000 
1459 	 39.912000 	 100.000000 
1460 	 39.909000 	 100.000000 
1461 	 39.887000 	 100.000000 
1462 	 39.882000 	 100.000000 
1463 	 39.885000 	 100.000000 
1464 	 39.839000 	 100.000000 
1465 	 39.812000 	 100.000000 
1466 	 39.739000 	 100.000000 
1467 	 39.680000 	 100.000000 
1468 	 39.695000 	 100.000000 
1469 	 39.671000 	 100.000000 
1470 	 39.688000 	 100.000000 
1471 	 39.716000 	 100.000000 
1472 	 39.722000 	 100.000000 
1473 	 39.719000 	 100.000000 
1474 	 39.731000 	 100.000000 
1475 	 39.761000 	 95.774000 
1476 	 39.755000 	 100.000000 
1477 	 39.743000 	 100.000000 
1478 	 39.730000 	 100.000000 
1479 	 39.688000 	 100.000000 
1480 	 39.697000 	 100.000000 
1481 	 39.688000 	 100.000000 
1482 	 39.699000 	 100.000000 
1483 	 39.745000 	 92.424000 
1484 	 39.820000 	 28.610000 
1485 	 39.816000 	 73.752000 
1486 	 39.833000 	 72.675000 
1487 	 39.856000 	 57.903000 
1488 	 39.871000 	 50.132000 
1489 	 39.953000 	 0.000000 
1490 	 40.018000 	 0.000000 
1491 	 40.034000 	 0.000000 
1492 	 40.042000 	 0.000000 
1493 	 40.008000 	 47.848000 
1494 	 39.970000 	 84.100000 
1495 	 39.958000 	 74.191000 
1496 	 40.039000 	 0.000000 
1497 	 40.080000 	 0.000000 
1498 	 40.121000 	 0.000000 
1499 	 40.108000 	 0.000000 
1500 	 40.091000 	 13.400000 
1501 	 40.123000 	 0.000000 
1502 	 40.029000 	 100.000000 
1503 	 40.081000 	 12.662000 
1504 	 40.119000 	 0.000000 
1505 	 40.110000 	 0.000000 
1506 	 40.132000 	 0.000000 
1507 	 40.156000 	 0.000000 
1508 	 40.188000 	 0.000000 
1509 	 40.175000 	 0.000000 
1510 	 40.175000 	 0.000000 
1511 	 40.215000 	 0.000000 
1512 	 40.221000 	 0.000000 
1513 	 40.181000 	 29.470000 
1514 	 40.152000 	 47.106000 
1515 	 40.156000 	 23.549000 
1516 	 40.081000 	 100.000000 
1517 	 40.016000 	 100.000000 
1518 	 40.023000 	 100.000000 
1519 	 39.967000 	 100.000000 
1520 	 39.932000 	 100.000000 
1521 	 39.924000 	 100.000000 
1522 	 39.967000 	 56.923000 
1523 	 40.009000 	 15.671000 
1524 	 40.037000 	 0.000000 
1525 	 40.095000 	 0.000000 
1526 	 40.079000 	 0.000000 
1527 	 40.048000 	 35.372000 
1528 	 40.053000 	 19.993000 
1529 	 40.056000 	 16.075000 
1530 	 39.995000 	 92.596000 
1531 	 39.968000 	 100.000000 
1532 	 39.929000 	 100.000000 
1533 	 39.911000 	 100.000000 
1534 	 39.883000 	 100.000000 
1535 	 39.871000 	 100.000000 
1536 	 39.833000 	 100.000000 
1537 	 39.841000 	 100.000000 
1538 	 39.783000 	 100.000000 
1539 	 39.858000 	 43.893000 
1540 	 39.825000 	 100.000000 
1541 	 39.785000 	 100.000000 
1542 	 39.784000 	 100.000000 
1543 	 39.819000 	 78.497000 
1544 	 39.839000 	 64.093000 
1545 	 39.836000 	 82.082000 
1546 	 39.848000 	 79.830000 
1547 	 39.788000 	 100.000000 
1548 	 39.712000 	 100.000000 
1549 	 39.620000 	 100.000000 
1550 	 39.633000 	 100.000000 
1551 	 39.637000 	 100.000000 
1552 	 39.684000 	 100.000000 
1553 	 39.744000 	 70.170000 
1554 	 39.698000 	 100.000000 
1555 	 39.681000 	 100.000000 
1556 	 39.721000 	 100.000000 
1557 	 39.739000 	 100.000000 
1558 	 39.775000 	 79.939000 
1559 	 39.688000 	 100.000000 
1560 	 39.673000 	 100.000000 
1561 	 39.812000 	 9.312000 
1562 	 39.871000 	 0.000000 
1563 	 39.895000 	 0.000000 
1564 	 39.970000 	 0.000000 
1565 	 39.997000 	 0.000000 
1566 	 39.965000 	 18.142000 
1567 	 39.954000 	 34.331000 
1568 	 39.914000 	 94.796000 
1569 	 39.884000 	 100.000000 
1570 	 39.832000 	 100.000000 
1571 	 39.801000 	 100.000000 
1572 	 39.810000 	 100.000000 
1573 	 39.869000 	 39.344000 
1574 	 39.908000 	 8.753000 
1575 	 39.914000 	 28.330000 
1576 	 39.906000 	 48.068000 
1577 	 39.853000 	 100.000000 
1578 	 39.827000 	 100.000000 
1579 	 39.824000 	 100.000000 
1580 	 39.750000 	 100.000000 
1581 	 39.736000 	 100.000000 
1582 	 39.786000 	 93.297000 
1583 	 39.844000 	 35.650000 
1584 	 39.909000 	 0.000000 
1585 	 39.884000 	 50.188000 
1586 	 39.873000 	 79.429000 
1587 	 39.770000 	 100.000000 
1588 	 39.729000 	 100.000000 
1589 	 39.739000 	 100.000000 
1590 	 39.789000 	 87.500000 
1591 	 39.776000 	 100.000000 
1592 	 39.804000 	 77.188000 
1593 	 39.822000 	 74.960000 
1594 	 39.778000 	 100.000000 
1595 	 39.808000 	 80.910000 
1596 	 39.829000 	 70.402000 
1597 	 39.788000 	 100.000000 
1598 	 39.780000 	 100.000000 
1599 	 39.786000 	 100.000000 
1600 	 39.696000 	 100.000000 
1601 	 39.719000 	 100.000000 
1602 	 39.723000 	 100.000000 
1603 	 39.751000 	 100.000000 
1604 	 39.796000 	 63.035000 
1605 	 39.759000 	 100.000000 
1606 	 39.852000 	 10.004000 
1607 	 39.890000 	 3.175000 
1608 	 39.808000 	 100.000000 
1609 	 39.711000 	 100.000000 
1610 	 39.721000 	 100.000000 
1611 	 39.793000 	 67.906000 
1612 	 39.803000 	 81.413000 
1613 	 39.831000 	 53.833000 
1614 	 39.929000 	 0.000000 
